#TREATMENT-PLAN-DESCRIPTION
#PlanName
BP20-PB 
#NumberOfFractions
1
##FractionID
1
##NumberOfFields
1
###FieldsID
1
#TotalMetersetWeightOfAllFields
792

#FIELD-DESCRIPTION
###FieldID
1
###FinalCumulativeMeterSetWeight
792
###GantryAngle
0
###PatientSupportAngle
270
###IsocenterPosition
0 -170 250
###NumberOfControlPoints
2

#SPOTS-DESCRIPTION
####ControlPointIndex
0
####SpotTunnedID
Spot1 
####CumulativeMetersetWeight
0
####Energy (MeV)
172.6
####NbOfScannedSpots
396
####X Y Weight
-54.4805 55.5317 2
-48.3298 55.5317 2
-42.1792 55.5317 2
-36.0286 55.5317 2
-29.8779 55.5317 2
-23.7273 55.5317 2
-17.5767 55.5317 2
-11.4261 55.5317 2
-5.27543 55.5317 2
0.875202 55.5317 2
7.02583 55.5317 2
13.1765 55.5317 2
19.3271 55.5317 2
25.4777 55.5317 2
31.6283 55.5317 2
37.779 55.5317 2
43.9296 55.5317 2
50.0802 55.5317 2
53.1555 50.2051 2
47.0049 50.2051 2
40.8543 50.2051 2
34.7037 50.2051 2
28.553 50.2051 2
22.4024 50.2051 2
16.2518 50.2051 2
10.1011 50.2051 2
3.95052 50.2051 2
-2.20011 50.2051 2
-8.35074 50.2051 2
-14.5014 50.2051 2
-20.652 50.2051 2
-26.8026 50.2051 2
-32.9533 50.2051 2
-39.1039 50.2051 2
-45.2545 50.2051 2
-51.4051 50.2051 2
-54.4805 44.8785 2
-48.3298 44.8785 2
-42.1792 44.8785 2
-36.0286 44.8785 2
-29.8779 44.8785 2
-23.7273 44.8785 2
-17.5767 44.8785 2
-11.4261 44.8785 2
-5.27543 44.8785 2
0.875202 44.8785 2
7.02583 44.8785 2
13.1765 44.8785 2
19.3271 44.8785 2
25.4777 44.8785 2
31.6283 44.8785 2
37.779 44.8785 2
43.9296 44.8785 2
50.0802 44.8785 2
53.1555 39.5519 2
47.0049 39.5519 2
40.8543 39.5519 2
34.7037 39.5519 2
28.553 39.5519 2
22.4024 39.5519 2
16.2518 39.5519 2
10.1011 39.5519 2
3.95052 39.5519 2
-2.20011 39.5519 2
-8.35074 39.5519 2
-14.5014 39.5519 2
-20.652 39.5519 2
-26.8026 39.5519 2
-32.9533 39.5519 2
-39.1039 39.5519 2
-45.2545 39.5519 2
-51.4051 39.5519 2
-54.4805 34.2253 2
-48.3298 34.2253 2
-42.1792 34.2253 2
-36.0286 34.2253 2
-29.8779 34.2253 2
-23.7273 34.2253 2
-17.5767 34.2253 2
-11.4261 34.2253 2
-5.27543 34.2253 2
0.875202 34.2253 2
7.02583 34.2253 2
13.1765 34.2253 2
19.3271 34.2253 2
25.4777 34.2253 2
31.6283 34.2253 2
37.779 34.2253 2
43.9296 34.2253 2
50.0802 34.2253 2
53.1555 28.8987 2
47.0049 28.8987 2
40.8543 28.8987 2
34.7037 28.8987 2
28.553 28.8987 2
22.4024 28.8987 2
16.2518 28.8987 2
10.1011 28.8987 2
3.95052 28.8987 2
-2.20011 28.8987 2
-8.35074 28.8987 2
-14.5014 28.8987 2
-20.652 28.8987 2
-26.8026 28.8987 2
-32.9533 28.8987 2
-39.1039 28.8987 2
-45.2545 28.8987 2
-51.4051 28.8987 2
-54.4805 23.5721 2
-48.3298 23.5721 2
-42.1792 23.5721 2
-36.0286 23.5721 2
-29.8779 23.5721 2
-23.7273 23.5721 2
-17.5767 23.5721 2
-11.4261 23.5721 2
-5.27543 23.5721 2
0.875202 23.5721 2
7.02583 23.5721 2
13.1765 23.5721 2
19.3271 23.5721 2
25.4777 23.5721 2
31.6283 23.5721 2
37.779 23.5721 2
43.9296 23.5721 2
50.0802 23.5721 2
53.1555 18.2455 2
47.0049 18.2455 2
40.8543 18.2455 2
34.7037 18.2455 2
28.553 18.2455 2
22.4024 18.2455 2
16.2518 18.2455 2
10.1011 18.2455 2
3.95052 18.2455 2
-2.20011 18.2455 2
-8.35074 18.2455 2
-14.5014 18.2455 2
-20.652 18.2455 2
-26.8026 18.2455 2
-32.9533 18.2455 2
-39.1039 18.2455 2
-45.2545 18.2455 2
-51.4051 18.2455 2
-54.4805 12.9189 2
-48.3298 12.9189 2
-42.1792 12.9189 2
-36.0286 12.9189 2
-29.8779 12.9189 2
-23.7273 12.9189 2
-17.5767 12.9189 2
-11.4261 12.9189 2
-5.27543 12.9189 2
0.875202 12.9189 2
7.02583 12.9189 2
13.1765 12.9189 2
19.3271 12.9189 2
25.4777 12.9189 2
31.6283 12.9189 2
37.779 12.9189 2
43.9296 12.9189 2
50.0802 12.9189 2
53.1555 7.59233 2
47.0049 7.59233 2
40.8543 7.59233 2
34.7037 7.59233 2
28.553 7.59233 2
22.4024 7.59233 2
16.2518 7.59233 2
10.1011 7.59233 2
3.95052 7.59233 2
-2.20011 7.59233 2
-8.35074 7.59233 2
-14.5014 7.59233 2
-20.652 7.59233 2
-26.8026 7.59233 2
-32.9533 7.59233 2
-39.1039 7.59233 2
-45.2545 7.59233 2
-51.4051 7.59233 2
-54.4805 2.26572 2
-48.3298 2.26572 2
-42.1792 2.26572 2
-36.0286 2.26572 2
-29.8779 2.26572 2
-23.7273 2.26572 2
-17.5767 2.26572 2
-11.4261 2.26572 2
-5.27543 2.26572 2
0.875202 2.26572 2
7.02583 2.26572 2
13.1765 2.26572 2
19.3271 2.26572 2
25.4777 2.26572 2
31.6283 2.26572 2
37.779 2.26572 2
43.9296 2.26572 2
50.0802 2.26572 2
53.1555 -3.06088 2
47.0049 -3.06088 2
40.8543 -3.06088 2
34.7037 -3.06088 2
28.553 -3.06088 2
22.4024 -3.06088 2
16.2518 -3.06088 2
10.1011 -3.06088 2
3.95052 -3.06088 2
-2.20011 -3.06088 2
-8.35074 -3.06088 2
-14.5014 -3.06088 2
-20.652 -3.06088 2
-26.8026 -3.06088 2
-32.9533 -3.06088 2
-39.1039 -3.06088 2
-45.2545 -3.06088 2
-51.4051 -3.06088 2
-54.4805 -8.38748 2
-48.3298 -8.38748 2
-42.1792 -8.38748 2
-36.0286 -8.38748 2
-29.8779 -8.38748 2
-23.7273 -8.38748 2
-17.5767 -8.38748 2
-11.4261 -8.38748 2
-5.27543 -8.38748 2
0.875202 -8.38748 2
7.02583 -8.38748 2
13.1765 -8.38748 2
19.3271 -8.38748 2
25.4777 -8.38748 2
31.6283 -8.38748 2
37.779 -8.38748 2
43.9296 -8.38748 2
50.0802 -8.38748 2
53.1555 -13.7141 2
47.0049 -13.7141 2
40.8543 -13.7141 2
34.7037 -13.7141 2
28.553 -13.7141 2
22.4024 -13.7141 2
16.2518 -13.7141 2
10.1011 -13.7141 2
3.95052 -13.7141 2
-2.20011 -13.7141 2
-8.35074 -13.7141 2
-14.5014 -13.7141 2
-20.652 -13.7141 2
-26.8026 -13.7141 2
-32.9533 -13.7141 2
-39.1039 -13.7141 2
-45.2545 -13.7141 2
-51.4051 -13.7141 2
-54.4805 -19.0407 2
-48.3298 -19.0407 2
-42.1792 -19.0407 2
-36.0286 -19.0407 2
-29.8779 -19.0407 2
-23.7273 -19.0407 2
-17.5767 -19.0407 2
-11.4261 -19.0407 2
-5.27543 -19.0407 2
0.875202 -19.0407 2
7.02583 -19.0407 2
13.1765 -19.0407 2
19.3271 -19.0407 2
25.4777 -19.0407 2
31.6283 -19.0407 2
37.779 -19.0407 2
43.9296 -19.0407 2
50.0802 -19.0407 2
53.1555 -24.3673 2
47.0049 -24.3673 2
40.8543 -24.3673 2
34.7037 -24.3673 2
28.553 -24.3673 2
22.4024 -24.3673 2
16.2518 -24.3673 2
10.1011 -24.3673 2
3.95052 -24.3673 2
-2.20011 -24.3673 2
-8.35074 -24.3673 2
-14.5014 -24.3673 2
-20.652 -24.3673 2
-26.8026 -24.3673 2
-32.9533 -24.3673 2
-39.1039 -24.3673 2
-45.2545 -24.3673 2
-51.4051 -24.3673 2
-54.4805 -29.6939 2
-48.3298 -29.6939 2
-42.1792 -29.6939 2
-36.0286 -29.6939 2
-29.8779 -29.6939 2
-23.7273 -29.6939 2
-17.5767 -29.6939 2
-11.4261 -29.6939 2
-5.27543 -29.6939 2
0.875202 -29.6939 2
7.02583 -29.6939 2
13.1765 -29.6939 2
19.3271 -29.6939 2
25.4777 -29.6939 2
31.6283 -29.6939 2
37.779 -29.6939 2
43.9296 -29.6939 2
50.0802 -29.6939 2
53.1555 -35.0205 2
47.0049 -35.0205 2
40.8543 -35.0205 2
34.7037 -35.0205 2
28.553 -35.0205 2
22.4024 -35.0205 2
16.2518 -35.0205 2
10.1011 -35.0205 2
3.95052 -35.0205 2
-2.20011 -35.0205 2
-8.35074 -35.0205 2
-14.5014 -35.0205 2
-20.652 -35.0205 2
-26.8026 -35.0205 2
-32.9533 -35.0205 2
-39.1039 -35.0205 2
-45.2545 -35.0205 2
-51.4051 -35.0205 2
-54.4805 -40.3471 2
-48.3298 -40.3471 2
-42.1792 -40.3471 2
-36.0286 -40.3471 2
-29.8779 -40.3471 2
-23.7273 -40.3471 2
-17.5767 -40.3471 2
-11.4261 -40.3471 2
-5.27543 -40.3471 2
0.875202 -40.3471 2
7.02583 -40.3471 2
13.1765 -40.3471 2
19.3271 -40.3471 2
25.4777 -40.3471 2
31.6283 -40.3471 2
37.779 -40.3471 2
43.9296 -40.3471 2
50.0802 -40.3471 2
53.1555 -45.6737 2
47.0049 -45.6737 2
40.8543 -45.6737 2
34.7037 -45.6737 2
28.553 -45.6737 2
22.4024 -45.6737 2
16.2518 -45.6737 2
10.1011 -45.6737 2
3.95052 -45.6737 2
-2.20011 -45.6737 2
-8.35074 -45.6737 2
-14.5014 -45.6737 2
-20.652 -45.6737 2
-26.8026 -45.6737 2
-32.9533 -45.6737 2
-39.1039 -45.6737 2
-45.2545 -45.6737 2
-51.4051 -45.6737 2
-54.4805 -51.0003 2
-48.3298 -51.0003 2
-42.1792 -51.0003 2
-36.0286 -51.0003 2
-29.8779 -51.0003 2
-23.7273 -51.0003 2
-17.5767 -51.0003 2
-11.4261 -51.0003 2
-5.27543 -51.0003 2
0.875202 -51.0003 2
7.02583 -51.0003 2
13.1765 -51.0003 2
19.3271 -51.0003 2
25.4777 -51.0003 2
31.6283 -51.0003 2
37.779 -51.0003 2
43.9296 -51.0003 2
50.0802 -51.0003 2
53.1555 -56.3269 2
47.0049 -56.3269 2
40.8543 -56.3269 2
34.7037 -56.3269 2
28.553 -56.3269 2
22.4024 -56.3269 2
16.2518 -56.3269 2
10.1011 -56.3269 2
3.95052 -56.3269 2
-2.20011 -56.3269 2
-8.35074 -56.3269 2
-14.5014 -56.3269 2
-20.652 -56.3269 2
-26.8026 -56.3269 2
-32.9533 -56.3269 2
-39.1039 -56.3269 2
-45.2545 -56.3269 2
-51.4051 -56.3269 2
####ControlPointIndex
1
####SpotTunnedID
0 
####CumulativeMetersetWeight
792
####Energy (MeV)
0
####NbOfScannedSpots
0
####X Y Weight
