#TREATMENT-PLAN-DESCRIPTION
#PlanName
BP30-PB 
#NumberOfFractions
1
##FractionID
1
##NumberOfFields
1
###FieldsID
1
#TotalMetersetWeightOfAllFields
520

#FIELD-DESCRIPTION
###FieldID
1
###FinalCumulativeMeterSetWeight
520
###GantryAngle
0
###PatientSupportAngle
270
###IsocenterPosition
0 -170 250
###NumberOfControlPoints
2

#SPOTS-DESCRIPTION
####ControlPointIndex
0
####SpotTunnedID
Spot1 
####CumulativeMetersetWeight
0
####Energy (MeV)
217.9
####NbOfScannedSpots
260
####X Y Weight
-46.9514 56.173 2
-39.4223 56.173 2
-31.8932 56.173 2
-24.3641 56.173 2
-16.835 56.173 2
-9.30586 56.173 2
-1.77676 56.173 2
5.75233 56.173 2
13.2814 56.173 2
20.8105 56.173 2
28.3396 56.173 2
35.8687 56.173 2
43.3978 56.173 2
50.9269 56.173 2
47.1624 49.6526 2
39.6333 49.6526 2
32.1042 49.6526 2
24.5751 49.6526 2
17.046 49.6526 2
9.51688 49.6526 2
1.98778 49.6526 2
-5.54131 49.6526 2
-13.0704 49.6526 2
-20.5995 49.6526 2
-28.1286 49.6526 2
-35.6577 49.6526 2
-43.1868 49.6526 2
-50.7159 49.6526 2
-54.4805 43.1322 2
-46.9514 43.1322 2
-39.4223 43.1322 2
-31.8932 43.1322 2
-24.3641 43.1322 2
-16.835 43.1322 2
-9.30586 43.1322 2
-1.77676 43.1322 2
5.75233 43.1322 2
13.2814 43.1322 2
20.8105 43.1322 2
28.3396 43.1322 2
35.8687 43.1322 2
43.3978 43.1322 2
50.9269 43.1322 2
47.1624 36.6119 2
39.6333 36.6119 2
32.1042 36.6119 2
24.5751 36.6119 2
17.046 36.6119 2
9.51688 36.6119 2
1.98778 36.6119 2
-5.54131 36.6119 2
-13.0704 36.6119 2
-20.5995 36.6119 2
-28.1286 36.6119 2
-35.6577 36.6119 2
-43.1868 36.6119 2
-50.7159 36.6119 2
-54.4805 30.0915 2
-46.9514 30.0915 2
-39.4223 30.0915 2
-31.8932 30.0915 2
-24.3641 30.0915 2
-16.835 30.0915 2
-9.30586 30.0915 2
-1.77676 30.0915 2
5.75233 30.0915 2
13.2814 30.0915 2
20.8105 30.0915 2
28.3396 30.0915 2
35.8687 30.0915 2
43.3978 30.0915 2
50.9269 30.0915 2
47.1624 23.5711 2
39.6333 23.5711 2
32.1042 23.5711 2
24.5751 23.5711 2
17.046 23.5711 2
9.51688 23.5711 2
1.98778 23.5711 2
-5.54131 23.5711 2
-13.0704 23.5711 2
-20.5995 23.5711 2
-28.1286 23.5711 2
-35.6577 23.5711 2
-43.1868 23.5711 2
-50.7159 23.5711 2
-54.4805 17.0507 2
-46.9514 17.0507 2
-39.4223 17.0507 2
-31.8932 17.0507 2
-24.3641 17.0507 2
-16.835 17.0507 2
-9.30586 17.0507 2
-1.77676 17.0507 2
5.75233 17.0507 2
13.2814 17.0507 2
20.8105 17.0507 2
28.3396 17.0507 2
35.8687 17.0507 2
43.3978 17.0507 2
50.9269 17.0507 2
47.1624 10.5303 2
39.6333 10.5303 2
32.1042 10.5303 2
24.5751 10.5303 2
17.046 10.5303 2
9.51688 10.5303 2
1.98778 10.5303 2
-5.54131 10.5303 2
-13.0704 10.5303 2
-20.5995 10.5303 2
-28.1286 10.5303 2
-35.6577 10.5303 2
-43.1868 10.5303 2
-50.7159 10.5303 2
-54.4805 4.0099 2
-46.9514 4.0099 2
-39.4223 4.0099 2
-31.8932 4.0099 2
-24.3641 4.0099 2
-16.835 4.0099 2
-9.30586 4.0099 2
-1.77676 4.0099 2
5.75233 4.0099 2
13.2814 4.0099 2
20.8105 4.0099 2
28.3396 4.0099 2
35.8687 4.0099 2
43.3978 4.0099 2
50.9269 4.0099 2
47.1624 -2.51049 2
39.6333 -2.51049 2
32.1042 -2.51049 2
24.5751 -2.51049 2
17.046 -2.51049 2
9.51688 -2.51049 2
1.98778 -2.51049 2
-5.54131 -2.51049 2
-13.0704 -2.51049 2
-20.5995 -2.51049 2
-28.1286 -2.51049 2
-35.6577 -2.51049 2
-43.1868 -2.51049 2
-50.7159 -2.51049 2
-54.4805 -9.03088 2
-46.9514 -9.03088 2
-39.4223 -9.03088 2
-31.8932 -9.03088 2
-24.3641 -9.03088 2
-16.835 -9.03088 2
-9.30586 -9.03088 2
-1.77676 -9.03088 2
5.75233 -9.03088 2
13.2814 -9.03088 2
20.8105 -9.03088 2
28.3396 -9.03088 2
35.8687 -9.03088 2
43.3978 -9.03088 2
50.9269 -9.03088 2
47.1624 -15.5513 2
39.6333 -15.5513 2
32.1042 -15.5513 2
24.5751 -15.5513 2
17.046 -15.5513 2
9.51688 -15.5513 2
1.98778 -15.5513 2
-5.54131 -15.5513 2
-13.0704 -15.5513 2
-20.5995 -15.5513 2
-28.1286 -15.5513 2
-35.6577 -15.5513 2
-43.1868 -15.5513 2
-50.7159 -15.5513 2
-54.4805 -22.0717 2
-46.9514 -22.0717 2
-39.4223 -22.0717 2
-31.8932 -22.0717 2
-24.3641 -22.0717 2
-16.835 -22.0717 2
-9.30586 -22.0717 2
-1.77676 -22.0717 2
5.75233 -22.0717 2
13.2814 -22.0717 2
20.8105 -22.0717 2
28.3396 -22.0717 2
35.8687 -22.0717 2
43.3978 -22.0717 2
50.9269 -22.0717 2
47.1624 -28.592 2
39.6333 -28.592 2
32.1042 -28.592 2
24.5751 -28.592 2
17.046 -28.592 2
9.51688 -28.592 2
1.98778 -28.592 2
-5.54131 -28.592 2
-13.0704 -28.592 2
-20.5995 -28.592 2
-28.1286 -28.592 2
-35.6577 -28.592 2
-43.1868 -28.592 2
-50.7159 -28.592 2
-54.4805 -35.1124 2
-46.9514 -35.1124 2
-39.4223 -35.1124 2
-31.8932 -35.1124 2
-24.3641 -35.1124 2
-16.835 -35.1124 2
-9.30586 -35.1124 2
-1.77676 -35.1124 2
5.75233 -35.1124 2
13.2814 -35.1124 2
20.8105 -35.1124 2
28.3396 -35.1124 2
35.8687 -35.1124 2
43.3978 -35.1124 2
50.9269 -35.1124 2
47.1624 -41.6328 2
39.6333 -41.6328 2
32.1042 -41.6328 2
24.5751 -41.6328 2
17.046 -41.6328 2
9.51688 -41.6328 2
1.98778 -41.6328 2
-5.54131 -41.6328 2
-13.0704 -41.6328 2
-20.5995 -41.6328 2
-28.1286 -41.6328 2
-35.6577 -41.6328 2
-43.1868 -41.6328 2
-50.7159 -41.6328 2
-54.4805 -48.1532 2
-46.9514 -48.1532 2
-39.4223 -48.1532 2
-31.8932 -48.1532 2
-24.3641 -48.1532 2
-16.835 -48.1532 2
-9.30586 -48.1532 2
-1.77676 -48.1532 2
5.75233 -48.1532 2
13.2814 -48.1532 2
20.8105 -48.1532 2
28.3396 -48.1532 2
35.8687 -48.1532 2
43.3978 -48.1532 2
50.9269 -48.1532 2
47.1624 -54.6736 2
39.6333 -54.6736 2
32.1042 -54.6736 2
24.5751 -54.6736 2
17.046 -54.6736 2
9.51688 -54.6736 2
1.98778 -54.6736 2
-5.54131 -54.6736 2
-13.0704 -54.6736 2
-20.5995 -54.6736 2
-28.1286 -54.6736 2
-35.6577 -54.6736 2
-43.1868 -54.6736 2
-50.7159 -54.6736 2
####ControlPointIndex
1
####SpotTunnedID
0 
####CumulativeMetersetWeight
520
####Energy (MeV)
0
####NbOfScannedSpots
0
####X Y Weight
